DEMO Spectrum
---------------------------
1317.50  2 
190.9075 1035 
235.0812 1105 
259.8180 522
263.2010 2100
334.4047 1255
362.2209 2253
375.8011 155
477.1096 12652
487.3024 266
578.4202 169
606.4414 7445
712.4011 11107
823.4051 3601
831.5039 79
841.4551 13160
942.0202 55
945.4404 2106
956.5008 8250
1055.0213 8183
1058.5512 6224
1168.6308 352
1171.6106 6167


